# XDI/1.0 Athena/0.9.26
# Element.edge:                  K
# Element.symbol:                Pd
# Column.1:                      energy eV
# Column.2:                      norm
# Column.3:                      nbkg
# Column.4:                      flat
# Column.5:                      fbkg
# Column.6:                      nder
# Column.7:                      nsec
# Athena.e0:                     24343.212166
# Athena.eshift:                 0
# Athena.rbkg:                   1.0
# Athena.importance:             1
# Athena.standard:               None
# Athena.bkg_kweight:            2
# Athena.edge_step:              1.6720369
# Athena.fixed_step:             no
# Athena.pre_edge_range:         -150.000 -60.000
# Athena.pre_edge_line:          -1.310798 + 6.67811e-006 * E
# Athena.normalization_range:    200 1420.350
# Athena.post_edge_polynomial:   44.409265 - 0.00319638 * E + 5.72478582e-008 * E^2 + 0 * E^3
# Athena.spline_range_energy:    0.000 857.246
# Athena.clamps:                 0 24
# Athena.spline_range_k:         0.000 15.000
# Athena.kweight:                2
# Athena.window:                 hanning
# Athena.phase_correction:       no
# Athena.k_range:                3.000 17.976
# Athena.dk:                     1
# Athena.r_range:                1 4
# Athena.dr:                     0.0
# Athena.window:                 Kaiser-Bessel
# Athena.plot_multiplier:        1
# Athena.y_offset:               0
# ///
#------------------------
#   e         norm        nbkg        flat        fbkg        nder        nsec
  24024.123       0.12714647E-01   0.12714648E-01   0.12714648E-01   0.12714648E-01  -0.87136971E-04   0.14970890E-06
  24030.231       0.12182492E-01   0.12182492E-01   0.12182492E-01   0.12182492E-01  -0.86222681E-04   0.64922968E-06
  24035.906       0.11698709E-01   0.11698710E-01   0.11698710E-01   0.11698710E-01  -0.79487275E-04   0.11659741E-05
  24041.860       0.11258071E-01   0.11258072E-01   0.11258072E-01   0.11258072E-01  -0.72662647E-04   0.94963087E-06
  24047.742       0.10838654E-01   0.10838655E-01   0.10838655E-01   0.10838655E-01  -0.68247183E-04   0.57413703E-06
  24053.793       0.10443682E-01   0.10443682E-01   0.10443682E-01   0.10443682E-01  -0.65811505E-04  -0.61263538E-06
  24059.788       0.10045945E-01   0.10045946E-01   0.10045946E-01   0.10045946E-01  -0.75626464E-04  -0.14980078E-05
  24065.841       0.95325434E-02   0.95325441E-02   0.95325440E-02   0.95325441E-02  -0.83859319E-04  -0.94976423E-06
  24071.882       0.90317541E-02   0.90317547E-02   0.90317547E-02   0.90317547E-02  -0.87112871E-04  -0.21279544E-06
  24077.591       0.85089607E-02   0.85089612E-02   0.85089612E-02   0.85089612E-02  -0.86359681E-04   0.56018196E-06
  24083.507       0.80278086E-02   0.80278091E-02   0.80278091E-02   0.80278091E-02  -0.80600663E-04   0.12290812E-05
  24089.606       0.75405384E-02   0.75405389E-02   0.75405388E-02   0.75405389E-02  -0.71592189E-04   0.11941364E-05
  24095.840       0.71448355E-02   0.71448360E-02   0.71448360E-02   0.71448360E-02  -0.65872936E-04   0.56980384E-06
  24101.736       0.67415104E-02   0.67415108E-02   0.67415108E-02   0.67415108E-02  -0.64680561E-04   0.10845320E-06
  24107.666       0.63799146E-02   0.63799150E-02   0.63799150E-02   0.63799150E-02  -0.64590354E-04  -0.43996265E-06
  24113.580       0.59765191E-02   0.59765195E-02   0.59765195E-02   0.59765195E-02  -0.69891364E-04  -0.12381471E-05
  24119.746       0.55356324E-02   0.55356328E-02   0.55356327E-02   0.55356328E-02  -0.79547074E-04  -0.90405346E-06
  24125.572       0.50225402E-02   0.50225405E-02   0.50225405E-02   0.50225405E-02  -0.80733346E-04   0.48655839E-06
  24131.701       0.45704391E-02   0.45704394E-02   0.45704394E-02   0.45704394E-02  -0.73730111E-04   0.96142762E-06
  24137.528       0.41410773E-02   0.41410776E-02   0.41410776E-02   0.41410776E-02  -0.69239226E-04   0.10927991E-05
  24143.664       0.37421765E-02   0.37421767E-02   0.37421767E-02   0.37421767E-02  -0.60657685E-04   0.88771733E-06
  24149.624       0.34073753E-02   0.34073755E-02   0.34073755E-02   0.34073755E-02  -0.58501593E-04   0.18135284E-06
  24155.722       0.30367326E-02   0.30367328E-02   0.30367328E-02   0.30367328E-02  -0.58470834E-04   0.15761733E-06
  24161.656       0.27038300E-02   0.27038302E-02   0.27038302E-02   0.27038302E-02  -0.56605076E-04  -0.48535968E-06
  24167.465       0.23720221E-02   0.23720222E-02   0.23720222E-02   0.23720222E-02  -0.64170389E-04  -0.91831914E-06
  24173.682       0.19321309E-02   0.19321310E-02   0.19321310E-02   0.19321310E-02  -0.67648582E-04   0.37903872E-07
  24179.633       0.15489215E-02   0.15489217E-02   0.15489216E-02   0.15489217E-02  -0.63709201E-04   0.10106082E-05
  24185.620       0.11715462E-02   0.11715463E-02   0.11715463E-02   0.11715463E-02  -0.55583555E-04   0.14969491E-05
  24191.504       0.88908164E-03   0.88908173E-03   0.88908170E-03   0.88908173E-03  -0.45938716E-04   0.73403787E-06
  24197.626       0.62001795E-03   0.62001802E-03   0.62001799E-03   0.62001802E-03  -0.46770888E-04  -0.57596720E-08
  24203.542       0.32606188E-03   0.32606193E-03   0.32606190E-03   0.32606193E-03  -0.46008050E-04   0.10892009E-05
  24209.726       0.63329429E-04   0.63329462E-04   0.63329433E-04   0.63329462E-04  -0.33591768E-04   0.13882548E-05
  24215.746      -0.83920207E-04  -0.83920183E-04  -0.83920212E-04  -0.83920183E-04  -0.29064625E-04  -0.21066678E-07
  24221.820      -0.28819989E-03  -0.28819987E-03  -0.28819990E-03  -0.28819987E-03  -0.33846564E-04   0.18495787E-06
  24227.767      -0.49077388E-03  -0.49077388E-03  -0.49077391E-03  -0.49077388E-03  -0.26841333E-04   0.13877577E-05
  24233.862      -0.61140663E-03  -0.61140664E-03  -0.61140667E-03  -0.61140664E-03  -0.17136043E-04   0.18053031E-05
  24239.827      -0.69742962E-03  -0.69742963E-03  -0.69742966E-03  -0.69742963E-03  -0.50698982E-05   0.18774321E-05
  24246.091      -0.67340821E-03  -0.67340822E-03  -0.67340825E-03  -0.67340822E-03   0.58237386E-05   0.16747287E-05
  24252.132      -0.62576643E-03  -0.62576644E-03  -0.62576647E-03  -0.62576644E-03   0.15538239E-04   0.21228581E-05
  24258.063      -0.48737917E-03  -0.48737917E-03  -0.48737920E-03  -0.48737917E-03   0.31239313E-04   0.28383340E-05
  24264.133      -0.25086113E-03  -0.25086111E-03  -0.25086114E-03  -0.25086111E-03   0.49601295E-04   0.35070452E-05
  24270.205       0.11483283E-03   0.11483287E-03   0.11483284E-03   0.11483287E-03   0.73818538E-04   0.55285915E-05
  24276.385       0.65353422E-03   0.65353429E-03   0.65353426E-03   0.65353429E-03   0.11733540E-03   0.88996937E-05
  24282.370       0.15422874E-02   0.15422875E-02   0.15422875E-02   0.15422875E-02   0.18208858E-03   0.99913851E-05
  24288.543       0.28674824E-02   0.28674826E-02   0.28674826E-02   0.28674826E-02   0.23881698E-03   0.88815456E-05
  24294.412       0.44181693E-02   0.44181696E-02   0.44181695E-02   0.44181696E-02   0.28904193E-03   0.12101516E-04
  24300.609       0.63550973E-02   0.63550978E-02   0.63550977E-02   0.63550978E-02   0.38483534E-03   0.18284293E-04
  24306.605       0.91103950E-02   0.91103956E-02   0.91103956E-02   0.91103956E-02   0.51197892E-03   0.19848117E-04
  24311.305       0.11830799E-01   0.11830800E-01   0.11830800E-01   0.11830800E-01   0.59711434E-03   0.22480263E-04
  24313.164       0.13026696E-01   0.13026697E-01   0.13026697E-01   0.13026697E-01   0.65942049E-03   0.16232225E-03
  24313.580       0.13331247E-01   0.13331248E-01   0.13331248E-01   0.13331248E-01   0.96646303E-03   0.31918093E-03
  24313.944       0.13780740E-01   0.13780741E-01   0.13780741E-01   0.13780741E-01   0.90844864E-03  -0.33119383E-03
  24314.308       0.13992798E-01   0.13992799E-01   0.13992799E-01   0.13992799E-01   0.72528106E-03   0.11125785E-04
  24314.672       0.14308920E-01   0.14308921E-01   0.14308921E-01   0.14308921E-01   0.91655091E-03   0.32171058E-03
  24315.088       0.14707967E-01   0.14707968E-01   0.14707968E-01   0.14707968E-01   0.97630635E-03  -0.16207196E-03
  24315.453       0.15070739E-01   0.15070740E-01   0.15070740E-01   0.15070740E-01   0.79008502E-03  -0.44882461E-04
  24315.817       0.15283395E-01   0.15283396E-01   0.15283396E-01   0.15283396E-01   0.94361796E-03   0.68469684E-03
  24316.181       0.15758006E-01   0.15758007E-01   0.15758007E-01   0.15758007E-01   0.12887716E-02   0.30174360E-03
  24316.389       0.16020925E-01   0.16020926E-01   0.16020926E-01   0.16020926E-01   0.11162980E-02  -0.43580425E-03
  24316.753       0.16396855E-01   0.16396856E-01   0.16396856E-01   0.16396856E-01   0.10393644E-02   0.70466927E-04
  24317.274       0.16940219E-01   0.16940220E-01   0.16940220E-01   0.16940220E-01   0.11786244E-02   0.84663130E-04
  24317.638       0.17439351E-01   0.17439352E-01   0.17439352E-01   0.17439352E-01   0.11142492E-02  -0.47838655E-03
  24318.002       0.17751885E-01   0.17751886E-01   0.17751886E-01   0.17751886E-01   0.83014751E-03   0.51850868E-03
  24318.366       0.18044084E-01   0.18044085E-01   0.18044085E-01   0.18044085E-01   0.14919641E-02   0.73781260E-03
  24318.678       0.18761122E-01   0.18761124E-01   0.18761124E-01   0.18761124E-01   0.13292401E-02  -0.96174388E-03
  24319.095       0.19012445E-01   0.19012446E-01   0.19012446E-01   0.19012446E-01   0.79132690E-03   0.69644079E-03
  24319.459       0.19378805E-01   0.19378806E-01   0.19378806E-01   0.19378806E-01   0.18728574E-02   0.20747084E-02
  24319.771       0.20279451E-01   0.20279453E-01   0.20279453E-01   0.20279453E-01   0.21948879E-02  -0.12558851E-02
  24320.083       0.20749486E-01   0.20749487E-01   0.20749487E-01   0.20749487E-01   0.10885722E-02  -0.16447266E-02
  24320.500       0.21072576E-01   0.21072578E-01   0.21072578E-01   0.21072578E-01   0.99655323E-03   0.97775636E-03
  24320.864       0.21527451E-01   0.21527452E-01   0.21527452E-01   0.21527452E-01   0.18518636E-02   0.14521928E-02
  24321.228       0.22421909E-01   0.22421910E-01   0.22421910E-01   0.22421910E-01   0.20546717E-02  -0.50507432E-03
  24321.541       0.22917660E-01   0.22917662E-01   0.22917662E-01   0.22917662E-01   0.15101258E-02  -0.63717953E-03
  24321.905       0.23443705E-01   0.23443707E-01   0.23443707E-01   0.23443707E-01   0.16235369E-02   0.54075881E-03
  24322.269       0.24100728E-01   0.24100730E-01   0.24100730E-01   0.24100730E-01   0.19041756E-02   0.20596198E-03
  24322.634       0.24831314E-01   0.24831316E-01   0.24831316E-01   0.24831316E-01   0.17736253E-02  -0.53057487E-03
  24322.998       0.25393244E-01   0.25393245E-01   0.25393245E-01   0.25393245E-01   0.15175234E-02   0.47280808E-03
  24323.363       0.25937231E-01   0.25937232E-01   0.25937232E-01   0.25937232E-01   0.21181909E-02   0.11511802E-02
  24323.727       0.26936949E-01   0.26936951E-01   0.26936951E-01   0.26936951E-01   0.23564863E-02   0.26920818E-03
  24324.039       0.27531981E-01   0.27531982E-01   0.27531982E-01   0.27531982E-01   0.23003772E-02  -0.14005478E-03
  24324.352       0.28374016E-01   0.28374018E-01   0.28374018E-01   0.28374018E-01   0.22689928E-02  -0.34456491E-03
  24324.768       0.29185731E-01   0.29185733E-01   0.29185733E-01   0.29185733E-01   0.20492418E-02   0.87927168E-04
  24325.133       0.29974330E-01   0.29974332E-01   0.29974332E-01   0.29974332E-01   0.23376578E-02   0.14681706E-02
  24325.445       0.30767921E-01   0.30767923E-01   0.30767923E-01   0.30767923E-01   0.30429393E-02   0.10717934E-02
  24325.757       0.31875501E-01   0.31875503E-01   0.31875503E-01   0.31875503E-01   0.30072939E-02  -0.79602387E-03
  24326.122       0.32803450E-01   0.32803452E-01   0.32803452E-01   0.32803452E-01   0.25041394E-02   0.27600916E-03
  24326.486       0.33700898E-01   0.33700900E-01   0.33700900E-01   0.33700900E-01   0.32084914E-02   0.91089347E-03
  24326.955       0.35476499E-01   0.35476501E-01   0.35476501E-01   0.35476501E-01   0.32630202E-02  -0.82942578E-04
  24327.424       0.36759288E-01   0.36759290E-01   0.36759290E-01   0.36759290E-01   0.31307503E-02   0.19292004E-02
  24327.788       0.38084956E-01   0.38084958E-01   0.38084958E-01   0.38084958E-01   0.48703779E-02   0.30934142E-02
  24328.049       0.39802777E-01   0.39802780E-01   0.39802780E-01   0.39802780E-01   0.50638187E-02  -0.22174184E-02
  24328.361       0.40985714E-01   0.40985716E-01   0.40985716E-01   0.40985716E-01   0.36001519E-02  -0.84832165E-03
  24328.673       0.42052624E-01   0.42052626E-01   0.42052626E-01   0.42052626E-01   0.45336762E-02   0.22175461E-02
  24329.142       0.44527372E-01   0.44527374E-01   0.44527374E-01   0.44527374E-01   0.53324745E-02   0.87897607E-03
  24329.559       0.46773863E-01   0.46773866E-01   0.46773866E-01   0.46773866E-01   0.53118996E-02   0.11656208E-02
  24329.871       0.48400570E-01   0.48400573E-01   0.48400573E-01   0.48400573E-01   0.61823928E-02   0.27599825E-02
  24330.184       0.50637908E-01   0.50637912E-01   0.50637912E-01   0.50637912E-01   0.70369107E-02   0.15201313E-02
  24330.574       0.53348609E-01   0.53348612E-01   0.53348612E-01   0.53348612E-01   0.72512807E-02   0.57794391E-03
  24331.017       0.56681097E-01   0.56681100E-01   0.56681100E-01   0.56681100E-01   0.75185669E-02   0.20056294E-02
  24331.330       0.59027284E-01   0.59027288E-01   0.59027288E-01   0.59027288E-01   0.87661065E-02   0.36495187E-02
  24331.720       0.62845616E-01   0.62845620E-01   0.62845620E-01   0.62845620E-01   0.10084989E-01   0.85164401E-03
  24332.163       0.67432860E-01   0.67432865E-01   0.67432865E-01   0.67432865E-01   0.94759297E-02   0.15118508E-02
  24332.476       0.70003325E-01   0.70003330E-01   0.70003330E-01   0.70003330E-01   0.11226976E-01   0.65737365E-02
  24332.736       0.73866434E-01   0.73866439E-01   0.73866439E-01   0.73866439E-01   0.13242983E-01   0.12193942E-02
  24333.049       0.77592376E-01   0.77592381E-01   0.77592381E-01   0.77592381E-01   0.11925764E-01   0.18624553E-02
  24333.518       0.83186073E-01   0.83186078E-01   0.83186078E-01   0.83186078E-01   0.14698438E-01   0.52557443E-02
  24333.935       0.90610679E-01   0.90610685E-01   0.90610685E-01   0.90610685E-01   0.16580740E-01  -0.43703484E-03
  24334.247       0.95280380E-01   0.95280386E-01   0.95280386E-01   0.95280386E-01   0.14379656E-01   0.80393425E-03
  24334.612       0.10035058       0.10035059       0.10035059       0.10035059       0.17125276E-01   0.11720717E-01
  24334.925       0.10688029       0.10688030       0.10688030       0.10688030       0.22318754E-01   0.65629493E-02
  24335.185       0.11314287       0.11314287       0.11314287       0.11314287       0.20886916E-01   0.37107244E-03
  24335.706       0.12320575       0.12320576       0.12320576       0.12320576       0.22608789E-01   0.43982175E-02
  24336.175       0.13552717       0.13552718       0.13552718       0.13552718       0.25241464E-01   0.50199730E-02
  24336.488       0.14293605       0.14293605       0.14293605       0.14293605       0.26532711E-01   0.53030477E-02
  24336.800       0.15211940       0.15211941       0.15211941       0.15211941       0.28557725E-01   0.32433615E-02
  24337.165       0.16228339       0.16228340       0.16228340       0.16228340       0.28730030E-01   0.27724971E-02
  24337.478       0.17158397       0.17158398       0.17158398       0.17158398       0.30436089E-01   0.10282617E-01
  24337.791       0.18131815       0.18131816       0.18131816       0.18131816       0.35160789E-01   0.51361739E-02
  24338.260       0.19907186       0.19907188       0.19907188       0.19907188       0.34451431E-01   0.32869220E-02
  24338.781       0.21543485       0.21543487       0.21543487       0.21543487       0.38415775E-01   0.14629845E-01
  24339.042       0.22910636       0.22910637       0.22910637       0.22910637       0.45889439E-01  -0.38808283E-02
  24339.354       0.24174597       0.24174599       0.24174599       0.24174599       0.36190667E-01  -0.11408537E-01
  24339.719       0.25363002       0.25363004       0.25363004       0.25363004       0.38158740E-01   0.15227485E-01
  24340.032       0.26760394       0.26760396       0.26760396       0.26760396       0.46509450E-01   0.10804939E-01
  24340.345       0.28272317       0.28272319       0.28272319       0.28272319       0.44917575E-01   0.13830456E-03
  24340.814       0.30272683       0.30272685       0.30272685       0.30272685       0.46617596E-01   0.47054007E-02
  24341.283       0.32646726       0.32646728       0.32646728       0.32646728       0.49332935E-01  -0.53841663E-03
  24341.596       0.34130479       0.34130482       0.34130482       0.34130482       0.46196559E-01  -0.51809154E-02
  24341.909       0.35536842       0.35536845       0.35536845       0.35536845       0.46091687E-01   0.51136036E-02
  24342.274       0.37254422       0.37254424       0.37254424       0.37254424       0.49662391E-01   0.46199196E-02
  24342.586       0.38902885       0.38902887       0.38902887       0.38902887       0.49222999E-01  -0.12373586E-03
  24342.899       0.40334128       0.40334130       0.40334130       0.40334130       0.49584974E-01   0.49416542E-03
  24343.212       0.42005317       0.42890347       0.42005318       0.42890345       0.49532189E-01  -0.64335517E-02
  24343.577       0.43691618       0.40324463       0.43700696       0.40333539       0.45224055E-01  -0.32009865E-02
  24344.099       0.46014145       0.43890618       0.46036190       0.43912660       0.46694716E-01   0.40187176E-03
  24344.620       0.48561428       0.47301266       0.48596439       0.47336274       0.45643169E-01  -0.76416909E-02
  24344.985       0.50060412       0.49598069       0.50104498       0.49642152       0.39920357E-01  -0.53022115E-02
  24345.194       0.50851400       0.50877554       0.50900671       0.50926822       0.42601635E-01   0.83674127E-02
  24345.559       0.52504267       0.53059751       0.52562613       0.53118093       0.44720348E-01  -0.16890644E-02
  24345.924       0.54116526       0.55170559       0.54183945       0.55237975       0.41368413E-01  -0.13080803E-01
  24346.132       0.54877491       0.56345146       0.54950094       0.56417747       0.37216153E-01   0.12300878E-02
  24346.550       0.56445710       0.58626467       0.56528683       0.58709436       0.42138267E-01   0.11218920E-01
  24346.915       0.58174115       0.60549572       0.58266159       0.60641613       0.45993107E-01  -0.32447816E-02
  24347.280       0.59804136       0.62405754       0.59905251       0.62506865       0.39768921E-01  -0.10474678E-01
  24347.697       0.61285576       0.64446713       0.61397057       0.64558191       0.37797876E-01   0.20767806E-02
  24348.114       0.62958637       0.66403630       0.63080484       0.66525473       0.41502142E-01   0.19270058E-02
  24348.532       0.64749340       0.68278311       0.64881552       0.68410519       0.39406154E-01  -0.46369171E-02
  24348.949       0.66247585       0.70072550       0.66390160       0.70215121       0.37632041E-01   0.98781194E-03
  24349.366       0.67890325       0.71788149       0.68043263       0.71941082       0.40230638E-01   0.73702358E-02
  24349.575       0.68766059       0.72617017       0.68924179       0.72775132       0.42245875E-01   0.21330235E-02
  24349.784       0.69653456       0.73426901       0.69816757       0.73590197       0.41120855E-01  -0.16557848E-02
  24350.201       0.71340394       0.74990607       0.71514055       0.75164264       0.41209286E-01   0.15017854E-02
  24350.566       0.72878372       0.76298705       0.73061098       0.76481427       0.42296107E-01  -0.30565156E-02
  24350.984       0.74650474       0.77726550       0.74843561       0.77919632       0.38817266E-01  -0.35619484E-02
  24351.453       0.76321362       0.79249450       0.76526102       0.79454185       0.39136752E-01   0.69914804E-02
  24351.819       0.77917712       0.80374427       0.78131515       0.80588226       0.44653936E-01   0.44500902E-02
  24352.184       0.79583319       0.81448666       0.79806185       0.81671527       0.42387529E-01  -0.90169354E-02
  24352.601       0.81235388       0.82615788       0.81468610       0.82849005       0.37596371E-01  -0.75396914E-02
  24353.019       0.82722270       0.83720014       0.82965848       0.83963587       0.36092581E-01   0.43941532E-02
  24353.227       0.83495495       0.84249105       0.83744250       0.84497856       0.40347977E-01   0.83230542E-02
  24353.593       0.85038377       0.85138943       0.85296192       0.85396753       0.40870288E-01  -0.28993766E-02
  24354.115       0.87121376       0.86332589       0.87392133       0.86603341       0.37775743E-01  -0.11326927E-01
  24354.323       0.87798371       0.86785193       0.88074304       0.87061121       0.32594541E-01  -0.44964743E-02
  24354.532       0.88482244       0.87223933       0.88763353       0.87505037       0.35898402E-01   0.25940317E-02
  24354.897       0.89859280       0.87959042       0.90149448       0.88249203       0.34083762E-01  -0.11169513E-01
  24355.263       0.90972686       0.88653587       0.91271911       0.88952806       0.27737029E-01  -0.89557021E-02
  24355.680       0.92030809       0.89399234       0.92340384       0.89708803       0.27072351E-01  -0.33896637E-03
  24356.046       0.93092243       0.90010929       0.93410873       0.90329554       0.27471644E-01  -0.48853277E-02
  24356.411       0.94038308       0.90585860       0.94365994       0.90913540       0.23502383E-01  -0.11124468E-01
  24356.777       0.94809736       0.91125234       0.95146476       0.91461968       0.19342172E-01  -0.77750953E-02
  24357.194       0.95552794       0.91699677       0.95899882       0.92046758       0.17414507E-01  -0.55076072E-02
  24357.560       0.96173328       0.92166934       0.96529469       0.92523068       0.15029600E-01  -0.67426841E-02
  24357.925       0.96651222       0.92602437       0.97016415       0.92967623       0.12486664E-01  -0.76548461E-02
  24358.290       0.97085935       0.93007395       0.97460179       0.93381634       0.94349410E-02  -0.81783047E-02
  24358.708       0.97390068       0.93434357       0.97774656       0.93818939       0.60822742E-02  -0.55997403E-02
  24359.178       0.97625760       0.93871141       0.98021984       0.94267360       0.44649588E-02  -0.42984766E-02
  24359.543       0.97763051       0.94180566       0.98168325       0.94585834       0.24915117E-02  -0.52062666E-02
  24359.909       0.97807880       0.94464808       0.98222203       0.94879125       0.65937049E-03  -0.45227507E-02
  24360.144       0.97802643       0.94634800       0.98222783       0.95054934      -0.22416945E-03  -0.40927436E-02
  24360.379       0.97797346       0.94795207       0.98223302       0.95221157      -0.12639243E-02  -0.37198152E-02
  24360.797       0.97720147       0.95057709       0.98156443       0.95493999      -0.26520742E-02  -0.35444374E-02
  24361.162       0.97589621       0.95264804       0.98034964       0.95710141      -0.40401155E-02  -0.22227731E-02
  24361.580       0.97403693       0.95477288       0.97859374       0.95932963      -0.43931279E-02  -0.10075971E-02
  24362.050       0.97199622       0.95687645       0.97666933       0.96154950      -0.49346079E-02  -0.28672207E-02
  24362.468       0.96965609       0.95851133       0.97443256       0.96328774      -0.69385862E-02  -0.34397479E-02
  24362.833       0.96656080       0.95977529       0.97142771       0.96464214      -0.76291757E-02   0.25742975E-03
  24363.199       0.96407793       0.96089649       0.96903527       0.96585377      -0.67503636E-02   0.15973030E-02
  24363.434       0.96250646       0.96154753       0.96752193       0.96656294      -0.66698179E-02  -0.15379818E-02
  24363.669       0.96094275       0.96214781       0.96601635       0.96722135      -0.74732997E-02  -0.14795431E-02
  24364.139       0.95723701       0.96320899       0.96242686       0.96839878      -0.77130482E-02  -0.10259441E-02
  24364.505       0.95449697       0.96391941       0.95977723       0.96919961      -0.83306791E-02  -0.14807472E-02
  24364.870       0.95114511       0.96454256       0.95651577       0.96991316      -0.87958609E-02   0.83949726E-03
  24365.288       0.94760524       0.96516344       0.95307921       0.97063735      -0.76729162E-02   0.11878788E-02
  24365.706       0.94473222       0.96570431       0.95030949       0.97128152      -0.78030531E-02  -0.19745949E-02
  24366.072       0.94149100       0.96612619       0.94715865       0.97179377      -0.92201496E-02  -0.70788711E-03
  24366.437       0.93798902       0.96651284       0.94374704       0.97227080      -0.83207699E-02   0.27735405E-02
  24366.855       0.93497067       0.96692718       0.94083197       0.97278842      -0.70467450E-02   0.47076051E-03
  24367.221       0.93246687       0.96727905       0.93841853       0.97323065      -0.79518608E-02  -0.71955630E-03
  24367.587       0.92915448       0.96762791       0.93519649       0.97366986      -0.75730465E-02   0.23525656E-02
  24367.952       0.92692759       0.96797406       0.93305995       0.97410636      -0.62310837E-02   0.19287613E-02
  24368.318       0.92459664       0.96831751       0.93081934       0.97454015      -0.61622174E-02   0.15529896E-02
  24368.684       0.92241999       0.96865827       0.92873302       0.97497125      -0.50950858E-02   0.29673646E-02
  24369.050       0.92086952       0.96899636       0.92727288       0.97539966      -0.39915516E-02   0.35556748E-02
  24369.363       0.91970860       0.96928402       0.92618938       0.97576474      -0.26797835E-02   0.32677924E-02
  24369.781       0.91890910       0.96966452       0.92549310       0.97624846      -0.16009752E-02   0.26331270E-02
  24370.147       0.91845370       0.96999461       0.92512801       0.97666886      -0.61585173E-03   0.31542202E-02
  24370.461       0.91849073       0.97027544       0.92524244       0.97702709       0.54181905E-03   0.34382720E-02
  24370.826       0.91882179       0.97060063       0.92566380       0.97744257       0.17199830E-02   0.33687539E-02
  24371.192       0.91974914       0.97092318       0.92668144       0.97785542       0.30065442E-02   0.35233318E-02
  24371.558       0.92102158       0.97124311       0.92804416       0.97826563       0.42978780E-02   0.40187090E-02
  24371.872       0.92266921       0.97151526       0.92976917       0.97861516       0.57369396E-02   0.33331352E-02
  24372.237       0.92491949       0.97183034       0.93210973       0.97902052       0.65625501E-02   0.21936270E-02
  24372.603       0.92747120       0.97214283       0.93475170       0.97942327       0.73420757E-02   0.24499531E-02
  24372.969       0.93029205       0.97245272       0.93766281       0.97982343       0.83553008E-02   0.42294905E-02
  24373.335       0.93358537       0.97276004       0.94104638       0.98022099       0.10437094E-01   0.27810375E-02
  24373.649       0.93738427       0.97302140       0.94492264       0.98055971       0.10245074E-01  -0.72218348E-03
  24374.067       0.94108288       0.97336696       0.94872438       0.98100840       0.99085887E-02   0.49666182E-02
  24374.433       0.94515370       0.97366658       0.95288543       0.98139826       0.14139449E-01   0.97480526E-02
  24374.747       0.95069180       0.97392138       0.95850087       0.98173039       0.16533190E-01  -0.14227432E-02
  24375.060       0.95552536       0.97417430       0.96341177       0.98206064       0.13246928E-01  -0.32185541E-02
  24375.478       0.96038722       0.97450864       0.96837673       0.98249809       0.14177530E-01   0.57422485E-02
  24375.844       0.96664340       0.97479849       0.97472311       0.98287814       0.17750005E-01   0.35271143E-02
  24376.158       0.97245123       0.97504492       0.98060826       0.98320189       0.16574776E-01  -0.21364310E-02
  24376.524       0.97790897       0.97533010       0.98615620       0.98357727       0.16297911E-01   0.30031378E-02
  24376.890       0.98438105       0.97561278       0.99271847       0.98395014       0.18773027E-01   0.46429701E-02
  24377.256       0.99165096       0.97589298        1.0000786       0.98432052       0.19696598E-01   0.14692325E-02
  24377.727        1.0008594       0.97624958        1.0094029       0.98479306       0.20002201E-01  -0.36462258E-03
  24378.250        1.0115233       0.97664101        1.0201957       0.98531331       0.19334342E-01  -0.12089448E-02
  24378.616        1.0180469       0.97691203        1.0268094       0.98567448       0.18927497E-01   0.31975724E-02
  24378.929        1.0243906       0.97714238        1.0332304       0.98598210       0.21508103E-01   0.40429889E-02
  24379.243        1.0315441       0.97737093        1.0404611       0.98628793       0.21464634E-01  -0.48351353E-02
  24379.557        1.0378608       0.97759770        1.0468552       0.98659196       0.18473780E-01  -0.35251704E-02
  24379.923        1.0441039       0.97786000        1.0531883       0.98694440       0.19067970E-01   0.31547296E-02
  24380.237        1.0508249       0.97808291        1.0599867       0.98724456       0.20618646E-01  -0.10159592E-02
  24380.655        1.0592011       0.97837736        1.0684658       0.98764201       0.18324072E-01  -0.44540277E-02
  24381.126        1.0671177       0.97870487        1.0764983       0.98808538       0.16658374E-01  -0.33031403E-02
  24381.440        1.0722706       0.97892101        1.0817284       0.98837876       0.15732551E-01  -0.73890595E-02
  24381.701        1.0761696       0.97909979        1.0856918       0.98862190       0.12406982E-01  -0.99686451E-02
  24382.015        1.0794093       0.97931272        1.0890087       0.98891206       0.99968214E-02  -0.53298830E-02
  24382.460        1.0837519       0.97961140        1.0934607       0.98932013       0.83644046E-02  -0.56198409E-02
  24382.852        1.0864100       0.97987204        1.0962153       0.98967730       0.52932281E-02  -0.10730427E-01
  24383.166        1.0874901       0.98007861        1.0973726       0.98996108       0.78648013E-03  -0.10300041E-01
  24383.585        1.0869860       0.98035136        1.0969715       0.99033677      -0.22504086E-02  -0.75477124E-02
  24384.003        1.0856064       0.98062106        1.0956948       0.99070940      -0.55312646E-02  -0.88453758E-02
  24384.317        1.0829347       0.98082134        1.0931003       0.99098687      -0.87290538E-02  -0.90903011E-02
  24384.631        1.0801261       0.98101992        1.0903689       0.99126264      -0.11238319E-01  -0.74300111E-02
  24385.049        1.0747029       0.98128205        1.0850486       0.99162768      -0.14171366E-01  -0.51654299E-02
  24385.520        1.0675212       0.98157336        1.0779826       0.99203476      -0.15832794E-01  -0.76890382E-02
  24385.834        1.0622766       0.98176546        1.0728152       0.99230403      -0.20206077E-01  -0.12023801E-01
  24386.096        1.0558911       0.98192427        1.0664941       0.99252713      -0.22753345E-01   0.32627973E-02
  24386.410        1.0491801       0.98211330        1.0598602       0.99279333      -0.18328056E-01   0.23675433E-02
  24386.776        1.0434234       0.98233173        1.0541935       0.99310177      -0.21142812E-01  -0.69713062E-02
  24387.247        1.0314780       0.98260924        1.0423638       0.99349501      -0.24164880E-01  -0.82115505E-03
  24387.718        1.0206612       0.98288304        1.0316627       0.99388453      -0.21916303E-01   0.30818301E-03
  24388.084        1.0131270       0.98309344        1.0242185       0.99418491      -0.23906832E-01  -0.90728519E-02
  24388.398        1.0043962       0.98327200        1.0155649       0.99444061      -0.28088981E-01  -0.22827305E-02
  24388.660       0.99695637       0.98341956        1.0081893       0.99465244      -0.25220981E-01   0.10431167E-01
  24388.974       0.98987633       0.98359513        1.0011864       0.99490513      -0.22083675E-01   0.42506247E-02
  24389.341       0.98193066       0.98379792       0.99333069       0.99519789      -0.22328860E-01   0.36118107E-03
  24389.812       0.97117722       0.98405541       0.98269292       0.99557105      -0.21781207E-01   0.21519816E-02
  24390.283       0.96140941       0.98430928       0.97304076       0.99594058      -0.20301362E-01   0.41181328E-02
  24390.649       0.95417485       0.98450425       0.96589615       0.99622549      -0.18332275E-01   0.45255571E-02
  24390.963       0.94893448       0.98466963       0.96073287       0.99646797      -0.17221766E-01   0.21004966E-02
  24391.277       0.94335679       0.98483343       0.95523227       0.99670885      -0.17012823E-01   0.28885678E-02
  24391.591       0.93824740       0.98499564       0.95019996       0.99694814      -0.15407231E-01   0.57886376E-02
  24391.905       0.93367806       0.98515628       0.94570770       0.99718586      -0.13376435E-01   0.47555621E-02
  24392.377       0.92774330       0.98539428       0.93988854       0.99753947      -0.11672836E-01   0.45820443E-02
  24392.848       0.92267813       0.98562876       0.93493897       0.99788955      -0.90585323E-02   0.55739041E-02
  24393.214       0.92015519       0.98580872       0.93250594       0.99815940      -0.70037158E-02   0.30611385E-02
  24393.528       0.91791116       0.98596128       0.93033896       0.99838902      -0.69750173E-02   0.40311417E-02
  24393.790       0.91613803       0.98608724       0.92863003       0.99857919      -0.46820361E-02   0.70829821E-02
  24394.104       0.91521455       0.98623698       0.92778360       0.99880597      -0.28955738E-02   0.47047865E-02
  24394.471       0.91416705       0.98640973       0.92682598       0.99906860      -0.14795538E-02   0.33882758E-02
  24394.942       0.91397498       0.98662879       0.92674946       0.99940321      -0.56893243E-04   0.27390761E-02
  24395.466       0.91411045       0.98686817       0.92701330       0.99977097       0.12456023E-02   0.33702955E-02
  24395.832       0.91508384       0.98703324       0.92807655        1.0000259       0.29434112E-02   0.28163926E-02
  24396.147       0.91611426       0.98717309       0.92918399        1.0002428       0.31629460E-02   0.11750617E-02
  24396.513       0.91723718       0.98733436       0.93039674        1.0004939       0.37433932E-02   0.21532366E-02
  24396.880       0.91885888       0.98749360       0.93210829        1.0007429       0.47416775E-02   0.17428966E-02
  24397.246       0.92071384       0.98765081       0.93405307        1.0009900       0.50213077E-02   0.52465685E-03
  24397.613       0.92254068       0.98780601       0.93596974        1.0012350       0.51263743E-02   0.97955089E-03
  24397.980       0.92447279       0.98795919       0.93799166        1.0014780       0.57395702E-02   0.13114300E-02
  24398.346       0.92674938       0.98811038       0.94035807        1.0017190       0.60880170E-02   0.20424831E-03
  24398.765       0.92925603       0.98828073       0.94296734        1.0019920       0.59000442E-02  -0.54830870E-03
  24398.975       0.93045791       0.98836494       0.94422054        1.0021275       0.57433721E-02   0.12329899E-02
  24399.184       0.93166279       0.98844850       0.94547673        1.0022624       0.64167299E-02   0.83352447E-03
  24399.551       0.93415529       0.98859318       0.94805902        1.0024969       0.62236564E-02  -0.13769774E-02
  24399.970       0.93655309       0.98875613       0.95055943        1.0027624       0.53347575E-02  -0.29373622E-03
  24400.389       0.93862672       0.98891653       0.95273566        1.0030254       0.59774555E-02   0.16217866E-02
  24400.808       0.94156338       0.98907439       0.95577491        1.0032859       0.66941374E-02  -0.90570837E-03
  24401.175       0.94388723       0.98921044       0.95818852        1.0035117       0.52657164E-02  -0.23327712E-02
  24401.647       0.94597740       0.98938255       0.96039409        1.0037992       0.47386779E-02   0.20308595E-03
  24402.066       0.94810786       0.98953288       0.96262711        1.0040521       0.54466004E-02   0.22763181E-02
  24402.275       0.94940185       0.98960711       0.96397238        1.0041776       0.61698697E-02   0.70613353E-03
  24402.485       0.95069404       0.98968072       0.96531586        1.0043025       0.57425861E-02  -0.30799907E-02
  24402.852       0.95271167       0.98980805       0.96742322        1.0045195       0.43946708E-02  -0.16742195E-02
  24403.323       0.95437841       0.98996900       0.96920532        1.0047958       0.43389674E-02  -0.11955394E-03
  24404.144       0.95832002       0.99024178       0.97334771        1.0052694       0.42401409E-02  -0.27345846E-03
  24405.713       0.96451099       0.99073723       0.97992221        1.0061484       0.36854895E-02  -0.22656198E-03
  24407.621       0.97113301       0.99129499       0.98701046        1.0071724       0.34524748E-02   0.40883271E-04
  24409.540       0.97772209       0.99180749       0.99406816        1.0081535       0.38419317E-02   0.40401224E-03
  24411.330       0.98538343       0.99224306        1.0021666        1.0090262       0.49510293E-02   0.67310530E-03
  24413.158       0.99563487       0.99264621        1.0128639        1.0098752       0.62772213E-02   0.70649029E-03
  24415.054        1.0087562       0.99302140        1.0264476        1.0107127       0.75815937E-02   0.61626878E-03
  24416.924        1.0241868       0.99334965        1.0423340        1.0114968       0.85980593E-02   0.19073712E-03
  24418.917        1.0419757       0.99365520        1.0606085        1.0122879       0.83185260E-02  -0.64383348E-03
  24420.796        1.0563967       0.99390241        1.0754868        1.0129925       0.61050923E-02  -0.17076511E-02
  24422.590        1.0644013       0.99410284        1.0839282        1.0136297       0.20458711E-02  -0.25171430E-02
  24424.396        1.0637625       0.99427024        1.0837286        1.0142362      -0.29574882E-02  -0.24355295E-02
  24426.384        1.0531824       0.99441611        1.0736317        1.0148653      -0.71929960E-02  -0.17390018E-02
  24428.365        1.0352138       0.99452273        1.0561444        1.0154532      -0.98595168E-02  -0.10206609E-02
  24430.129        1.0162532       0.99458625        1.0376123        1.0159452      -0.11015922E-01  -0.16900676E-03
  24432.110       0.99395754       0.99462353        1.0157973        1.0164632      -0.10492472E-01   0.62486064E-03
  24434.130       0.97427706       0.99462585       0.99660673        1.0169555      -0.85161054E-02   0.13735764E-02
  24435.881       0.96184271       0.99459981       0.98459692        1.0173540      -0.53126195E-02   0.16681481E-02
  24437.814       0.95470476       0.99454204       0.97792733        1.0177645      -0.23704577E-02   0.13793596E-02
  24439.680       0.95283670       0.99445848       0.97651125        1.0181330      -0.72062529E-04   0.10540537E-02
  24441.495       0.95443947       0.99435182       0.97855336        1.0184657       0.15100138E-02   0.67762214E-03
  24443.405       0.95846165       0.99421306       0.98303761        1.0187890       0.24521463E-02   0.38699783E-03
  24445.351       0.96389336       0.99404434       0.98893968        1.0190906       0.30020270E-02   0.18471781E-03
  24447.305       0.97016890       0.99384757       0.99568752        1.0193661       0.31725055E-02   0.63524610E-05
  24449.218       0.97616173       0.99362914        1.0021423        1.0196096       0.30265926E-02  -0.89303452E-04
  24451.122       0.98172099       0.99338679        1.0081612        1.0198270       0.28316467E-02  -0.10311110E-03
  24452.942       0.98670822       0.99313242        1.0135876        1.0200118       0.26425544E-02  -0.82939620E-04
  24454.847       0.99156474       0.99284301        1.0189035        1.0201817       0.25226890E-02  -0.43943171E-04
  24456.718       0.99623300       0.99253616        1.0240226        1.0203257       0.24766405E-02  -0.14226351E-04
  24458.521        1.0006629       0.99221977        1.0288868        1.0204436       0.24704272E-02  -0.35964578E-04
  24460.469        1.0054983       0.99185563        1.0341911        1.0205484       0.23417556E-02  -0.13015019E-03
  24462.375        1.0096874       0.99147744        1.0388388        1.0206288       0.19688643E-02  -0.22580059E-03
  24464.376        1.0131907       0.99105771        1.0428233        1.0206903       0.14595521E-02  -0.31005072E-03
  24466.274        1.0153792       0.99063855        1.0454682        1.0207275       0.75975551E-03  -0.43747162E-03
  24467.973        1.0159239       0.99024671        1.0464209        1.0207437      -0.11422803E-03  -0.52572164E-03
  24469.812        1.0149751       0.98980519        1.0459137        1.0207437      -0.10999401E-02  -0.54104563E-03
  24471.803        1.0117107       0.98930704        1.0431272        1.0207235      -0.21866303E-02  -0.56899320E-03
  24473.669        1.0065407       0.98882224        1.0384046        1.0206861      -0.32947147E-02  -0.54857912E-03
  24475.493       0.99955567       0.98833180        1.0318568        1.0206329      -0.42104742E-02  -0.37208950E-03
  24477.476       0.99050907       0.98778032        1.0232855        1.0205567      -0.47114648E-02  -0.10223074E-03
  24479.629       0.98006530       0.98716134        1.0133573        1.0204532      -0.46333820E-02   0.15022126E-03
  24482.145       0.96887667       0.98641201        1.0027707        1.0203059      -0.40101096E-02   0.33796067E-03
  24484.862       0.95908314       0.98557289       0.99362664        1.0201163      -0.28650653E-02   0.55277404E-03
  24487.430       0.95373568       0.98475221       0.98889281        1.0199093      -0.10888690E-02   0.72981574E-03
  24489.947       0.95354621       0.98392355       0.98930423        1.0196815       0.84607110E-03   0.66127906E-03
  24492.602       0.95811146       0.98302452       0.99450293        1.0194159       0.23311863E-02   0.43196228E-03
  24495.370       0.96618993       0.98206148        1.0032414        1.0191129       0.31889183E-02   0.19013137E-03
  24497.938       0.97512805       0.98114650        1.0127911        1.0188095       0.33457583E-02  -0.83866299E-04
  24500.572       0.98359341       0.98018736        1.0218835        1.0184774       0.27526747E-02  -0.29573827E-03
  24503.099       0.98933439       0.97924916        1.0282255        1.0181402       0.18194755E-02  -0.33319229E-03
  24505.716       0.99295185       0.97826027        1.0324649        1.0177732       0.10389069E-02  -0.24869627E-03
  24508.445       0.99488827       0.97721158        1.0350495        1.0173727       0.48997214E-03  -0.18755129E-03
  24511.054       0.99556743       0.97619407        1.0363478        1.0169744       0.37715547E-04  -0.15755086E-03
  24513.750       0.99508837       0.97512855        1.0365081        1.0165482      -0.34590261E-03  -0.13914625E-03
  24516.305       0.99375104       0.97410737        1.0357761        1.0161324      -0.69296284E-03  -0.12616100E-03
  24518.979       0.99146530       0.97302798        1.0341234        1.0156861      -0.10055206E-02  -0.10216906E-03
  24521.727       0.98829889       0.97190854        1.0316073        1.0152169      -0.12469464E-02  -0.83851040E-04
  24524.330       0.98479216       0.97084067        1.0287159        1.0147644      -0.14542567E-02  -0.58701146E-04
  24526.969       0.98067585       0.96975192        1.0252230        1.0142990      -0.15546508E-02  -0.18159063E-04
  24529.518       0.97672736       0.96869583        1.0218761        1.0138445      -0.15484574E-02  -0.11252201E-04
  24532.226       0.97253601       0.96757027        1.0183235        1.0133577      -0.16138007E-02  -0.63208528E-04
  24534.935       0.96798582       0.96644248        1.0144117        1.0128683      -0.18908415E-02  -0.15005935E-03
  24537.516       0.96253305       0.96536723        1.0095668        1.0124010      -0.24076475E-02  -0.16280586E-03
  24540.143       0.95544675       0.96427429        1.0030986        1.0119261      -0.27387369E-02  -0.16344966E-04
  24542.828       0.94798584       0.96315948       0.99626908        1.0114427      -0.24944662E-02   0.15444297E-03
  24545.519       0.94203622       0.96204642       0.99095172        1.0109618      -0.19084342E-02   0.21434768E-03
  24548.150       0.93782904       0.96096356       0.98736225        1.0104967      -0.13536955E-02   0.19438739E-03
  24550.762       0.93493889       0.95989544       0.98508480        1.0100413      -0.88927355E-03   0.18244555E-03
  24553.407       0.93315384       0.95882187       0.98391990        1.0095879      -0.39451971E-03   0.18472544E-03
  24556.171       0.93280489       0.95771095       0.98421826        1.0091243       0.10992520E-03   0.18348541E-03
  24558.830       0.93374999       0.95665350       0.98578582        1.0086893       0.60056278E-03   0.19285025E-03
  24561.352       0.93591630       0.95566243       0.98854176        1.0082878       0.11090501E-02   0.18508105E-03
  24564.041       0.93952928       0.95461712       0.99278332        1.0078711       0.15650264E-02   0.14139952E-03
  24566.780       0.94441178       0.95356549       0.99830525        1.0074589       0.18766130E-02   0.58456337E-04
  24569.352       0.94949529       0.95258916        1.0039889        1.0070827       0.18754668E-02  -0.39458429E-04
  24572.069       0.95433122       0.95156970        1.0094582        1.0066967       0.16679152E-02  -0.69170736E-04
  24574.860       0.95868182       0.95053496        1.0144590        1.0063120       0.14944887E-02  -0.57224835E-04
  24577.497       0.96244334       0.94956865        1.0188343        1.0059596       0.13572978E-02  -0.53720769E-04
  24580.147       0.96585851       0.94860851        1.0228659        1.0056158       0.12104411E-02  -0.69236311E-04
  24582.715       0.96875908       0.94768881        1.0263631        1.0052928       0.99604211E-03  -0.10021881E-03
  24585.464       0.97115415       0.94671508        1.0293966        1.0049575       0.67761017E-03  -0.11834386E-03
  24588.718       0.97282712       0.94557716        1.0318246        1.0045746       0.28556405E-03  -0.14637331E-03
  24592.185       0.97307343       0.94438202        1.0328745        1.0041830      -0.30616964E-03  -0.21514817E-03
  24595.519       0.97074498       0.94324906        1.0313180        1.0038220      -0.11775746E-02  -0.27163983E-03
  24598.847       0.96522882       0.94213371        1.0265717        1.0034765      -0.21157451E-02  -0.25179554E-03
  24602.329       0.95633532       0.94098280        1.0184830        1.0031304      -0.28924729E-02  -0.14011817E-03
  24605.792       0.94513992       0.93985479        1.0080869        1.0028017      -0.30888985E-02   0.46098699E-04
  24609.220       0.93505169       0.93875357       0.99878924        1.0024911      -0.25748362E-02   0.16550707E-03
  24612.713       0.92731901       0.93764686       0.99186134        1.0021891      -0.19433939E-02   0.16214168E-03
  24616.078       0.92172256       0.93659512       0.98703942        1.0019119      -0.14627570E-02   0.13521585E-03
  24619.462       0.91744718       0.93555170       0.98354193        1.0016464      -0.10308512E-02   0.12519229E-03
  24622.839       0.91475372       0.93452388       0.98162409        1.0013942      -0.61642328E-03   0.10152222E-03
  24626.207       0.91328935       0.93351187       0.98093256        1.0011550      -0.34607493E-03   0.55204654E-04
  24629.596       0.91241518       0.93250650       0.98083525        1.0009265      -0.24338755E-03   0.16536860E-04
  24633.062       0.91162085       0.93149133       0.98083462        1.0007050      -0.23270997E-03   0.13395796E-04
  24636.565       0.91079349       0.93047851       0.98080847        1.0004934      -0.15003561E-03   0.48607857E-04
  24639.877       0.91059844       0.92953252       0.98137023        1.0003042       0.98525836E-04   0.11012637E-03
  24643.233       0.91145045       0.92858513       0.98298839        1.0001230       0.58428175E-03   0.16458354E-03
  24646.723       0.91459852       0.92761156       0.98693237       0.99994535       0.12252891E-02   0.14965922E-03
  24650.212       0.92000253       0.92664959       0.99313135       0.99977835       0.16288492E-02   0.62503575E-04
  24653.626       0.92584224       0.92571939       0.99974784       0.99962493       0.16567423E-02  -0.12944313E-04
  24657.088       0.93139288       0.92478641        1.0060855       0.99947898       0.15398551E-02  -0.50875255E-04
  24660.433       0.93632379       0.92389459        1.0117761       0.99934683       0.13104424E-02  -0.79276005E-04
  24663.882       0.94029617       0.92298457        1.0165310       0.99921933       0.10012453E-02  -0.90400079E-04
  24667.474       0.94337386       0.92204675        1.0204228       0.99909562       0.67390827E-03  -0.10559728E-03
  24670.794       0.94495446       0.92118859        1.0227551       0.99898914       0.27131946E-03  -0.12479280E-03
  24674.152       0.94518566       0.92032887        1.0237456       0.99888880      -0.15942763E-03  -0.12659607E-03
  24677.605       0.94386867       0.91945286        1.0232088       0.99879294      -0.59086981E-03  -0.12526829E-03
  24681.055       0.94110674       0.91858542        1.0212256       0.99870421      -0.10241849E-02  -0.12540850E-03
  24684.543       0.93676217       0.91771599        1.0176675       0.99862130      -0.14610407E-02  -0.11973655E-03
  24687.963       0.93101299       0.91687064        1.0126887       0.99854626      -0.18513978E-02  -0.95451168E-04
  24691.295       0.92426179       0.91605354        1.0066871       0.99847876      -0.21055135E-02  -0.50976697E-04
  24694.802       0.91661338       0.91519979       0.99982697       0.99841332      -0.22000274E-02   0.50184502E-05
  24698.253       0.90895324       0.91436580       0.99294166       0.99835416      -0.20705933E-02   0.99161975E-04
  24701.618       0.90250155       0.91355819       0.98724454       0.99830113      -0.15242029E-02   0.18123221E-03
  24705.073       0.89855960       0.91273408       0.98407665       0.99825107      -0.83475986E-03   0.17854296E-03
  24708.403       0.89683761       0.91194429       0.98310007       0.99820669      -0.31276945E-03   0.12248742E-03
  24711.890       0.89642716       0.91112173       0.98346940       0.99816392       0.35357597E-06   0.68509468E-04
  24715.419       0.89684009       0.91029391       0.98467036       0.99812412       0.16787975E-03   0.23161342E-04
  24718.843       0.89759434       0.90949424       0.98618860       0.99808845       0.16138246E-03  -0.18121224E-04
  24722.474       0.89797875       0.90864986       0.98738233       0.99805339       0.40022538E-04  -0.43380582E-04
  24726.343       0.89789452       0.90775391       0.98815936       0.99801870      -0.16398396E-03  -0.47946871E-04
  24730.384       0.89668163       0.90682180       0.98784499       0.99798510      -0.33923769E-03  -0.14850721E-04
  24734.680       0.89506643       0.90583511       0.98718362       0.99795225      -0.28778857E-03   0.38092275E-04
  24738.970       0.89421079       0.90485382       0.98727938       0.99792235      -0.12192350E-04   0.77834878E-04
  24743.142       0.89496325       0.90390346       0.98895584       0.99789600       0.37086893E-03   0.79347571E-04
  24747.252       0.89728231       0.90297104       0.99218395       0.99787262       0.64496035E-03   0.48459140E-04
  24751.330       0.90024443       0.90204935       0.99604705       0.99785192       0.76767025E-03   0.15407992E-04
  24755.419       0.90355218       0.90112892        1.0002569       0.99783361       0.77080361E-03  -0.14092361E-04
  24759.559       0.90658702       0.90020066        1.0042039       0.99781751       0.65171062E-03  -0.34582288E-04
  24763.725       0.90896506       0.89927012        1.0074988       0.99780375       0.48357530E-03  -0.39440550E-04
  24767.802       0.91057315       0.89836291        1.0100029       0.99779260       0.32660086E-03  -0.35910866E-04
  24771.851       0.91161915       0.89746522        1.0119377       0.99778375       0.19174953E-03  -0.35989678E-04
  24776.113       0.91216671       0.89652409        1.0134195       0.99777678       0.27502811E-04  -0.51740084E-04
  24780.396       0.91185416       0.89558170        1.0140446       0.99777214      -0.25035733E-03  -0.69884609E-04
  24784.651       0.91002919       0.89464924        1.0131498       0.99776984      -0.56916409E-03  -0.81398530E-04
  24788.735       0.90710804       0.89375734        1.0111205       0.99776973      -0.92911965E-03  -0.91262305E-04
  24792.841       0.90241949       0.89286390        1.0073273       0.99777166      -0.13166227E-02  -0.77138851E-04
  24797.016       0.89620439       0.89195853        1.0020216       0.99777567      -0.15679473E-02  -0.37587648E-04
  24801.120       0.88943875       0.89107198       0.99614839       0.99778157      -0.16278039E-02   0.20182073E-04
  24805.377       0.88259534       0.89015539       0.99022970       0.99778969      -0.13992176E-02   0.97600233E-04
  24809.632       0.87752822       0.88924247       0.98608560       0.99779980      -0.79700358E-03   0.14951327E-03
  24813.790       0.87588963       0.88835333       0.98534790       0.99781154      -0.14126604E-03   0.11419826E-03
  24817.810       0.87637297       0.88749681       0.98670082       0.99782461       0.13688648E-03   0.30222287E-04
  24821.912       0.87700131       0.88662551       0.98821549       0.99783962       0.10417410E-03  -0.15204262E-04
  24826.203       0.87724732       0.88571698       0.98938751       0.99785711       0.92743228E-05  -0.14728210E-04
  24830.521       0.87708116       0.88480583       0.99015187       0.99787648      -0.22626579E-04  -0.22029299E-05
  24834.613       0.87705704       0.88394523       0.99100829       0.99789643      -0.92517341E-05   0.44502386E-05
  24838.711       0.87700539       0.88308587       0.99183750       0.99791793       0.13821182E-04   0.72377505E-05
  24843.039       0.87717350       0.88218123       0.99293454       0.99794221       0.51735832E-04   0.10237636E-04
  24847.189       0.87744400       0.88131644       0.99409460       0.99796698       0.10061588E-03   0.15618421E-04
  24851.186       0.87799322       0.88048602       0.99549942       0.99799216       0.17897868E-03   0.18847019E-04
  24855.514       0.87893404       0.87958937       0.99736558       0.99802085       0.25752186E-03   0.11923587E-04
  24859.810       0.88021411       0.87870217       0.99956272       0.99805072       0.28180861E-03  -0.55997660E-05
  24863.916       0.88130175       0.87785655        1.0015258       0.99808054       0.21047362E-03  -0.20012879E-04
  24868.120       0.88196317       0.87699320        1.0030823       0.99811228       0.11549866E-03  -0.22207938E-04
  24872.350       0.88227582       0.87612702        1.0042943       0.99814542       0.23180845E-04  -0.20095143E-04
  24876.483       0.88215704       0.87528279        1.0050532       0.99817892      -0.52560355E-04  -0.16977094E-04
  24880.674       0.88183827       0.87442909        1.0056232       0.99821396      -0.11814728E-03  -0.18799149E-04
  24885.044       0.88114559       0.87354136        1.0058559       0.99825159      -0.21349737E-03  -0.23782510E-04
  24889.367       0.87998242       0.87266552        1.0056068       0.99828987      -0.32487946E-03  -0.20277210E-04
  24893.972       0.87824517       0.87173501        1.0048419       0.99833172      -0.39452621E-03  -0.13104570E-04
  24898.787       0.87626605       0.87076474        1.0038780       0.99837662      -0.44832225E-03  -0.13001396E-04
  24903.630       0.87391542       0.86979155        1.0025468       0.99842285      -0.52008933E-03  -0.13116357E-04
  24908.593       0.87116599       0.86879684        1.0008405       0.99847129      -0.57694282E-03  -0.14025592E-04
  24913.569       0.86818087       0.86780224       0.99889953       0.99852084      -0.65949732E-03  -0.95649456E-05
  24918.415       0.86468851       0.86683622       0.99642230       0.99856996      -0.67088827E-03   0.13495338E-04
  24923.469       0.86153921       0.86583119       0.99433009       0.99862202      -0.52589603E-03   0.32458845E-04
  24928.396       0.85943943       0.86485383       0.99325915       0.99867350      -0.34690965E-03   0.30502465E-04
  24933.152       0.85818003       0.86391259       0.99299130       0.99872381      -0.23053636E-03   0.18185492E-04
  24938.045       0.85721494       0.86294637       0.99304472       0.99877611      -0.17143390E-03   0.82743107E-05
  24943.089       0.85647651       0.86195264       0.99335444       0.99883052      -0.14831510E-03   0.51777565E-05
  24948.045       0.85573185       0.86097841       0.99363795       0.99888446      -0.11965853E-03   0.76128496E-05
  24953.063       0.85528299       0.85999403       0.99422857       0.99893956      -0.72381609E-04   0.74459919E-05
  24957.918       0.85501719       0.85904386       0.99496672       0.99899333      -0.46140618E-04   0.47985563E-05
  24962.684       0.85483907       0.85811307       0.99577260       0.99904656      -0.26214613E-04   0.69318800E-05
  24967.715       0.85476036       0.85713272       0.99673091       0.99910322       0.21771988E-04   0.12321805E-04
  24972.619       0.85505536       0.85617934       0.99803499       0.99915891       0.96197814E-04   0.10499430E-04
  24977.654       0.85571646       0.85520255       0.99973055       0.99921659       0.12612425E-03  -0.19567811E-06
  24982.635       0.85631856       0.85423863        1.0013541       0.99927412       0.94237998E-04  -0.10683790E-04
  24987.530       0.85664709       0.85329332        1.0026850       0.99933114       0.20618198E-04  -0.16454732E-04
  24992.670       0.85652548       0.85230284        1.0036142       0.99939153      -0.70899112E-04  -0.18312748E-04
  24997.568       0.85593536       0.85136132        1.0040236       0.99944954      -0.16321674E-03  -0.17833608E-04
  25002.354       0.85494497       0.85044342        1.0040083       0.99950668      -0.24359068E-03  -0.13983396E-04
  25007.211       0.85358649       0.84951388        1.0036378       0.99956513      -0.29805424E-03  -0.60076830E-05
  25012.192       0.85201280       0.84856285        1.0030756       0.99962555      -0.30269250E-03   0.13465841E-05
  25017.194       0.85056463       0.84760982        1.0026416       0.99968672      -0.28461091E-03   0.25061167E-05
  25022.260       0.84914730       0.84664706        1.0022495       0.99974918      -0.27746051E-03  -0.51251272E-06
  25027.233       0.84777938       0.84570412        1.0018863       0.99981098      -0.28975570E-03  -0.19599097E-05
  25032.220       0.84626129       0.84476063        1.0013742       0.99987346      -0.29698151E-03  -0.26852730E-05
  25037.165       0.84482948       0.84382720        1.0009382       0.99993590      -0.31642831E-03  -0.42644893E-05
  25041.979       0.84317333       0.84292085        1.0002497       0.99999714      -0.33859769E-03  -0.26764581E-05
  25047.014       0.84149477       0.84197483       0.99958170        1.0000617      -0.34278771E-03  -0.21439660E-05
  25051.977       0.83974591       0.84104457       0.99882723        1.0001258      -0.36003449E-03   0.15083122E-05
  25056.940       0.83792111       0.84011660       0.99799502        1.0001905      -0.32781639E-03   0.81003709E-05
  25061.960       0.83647346       0.83918015       0.99754970        1.0002563      -0.27917186E-03   0.71376346E-05
  25066.948       0.83512701       0.83825175       0.99719761        1.0003223      -0.25637917E-03   0.67917591E-05
  25071.943       0.83391390       0.83732439       0.99697841        1.0003888      -0.21136650E-03   0.99038868E-05
  25076.847       0.83303489       0.83641621       0.99707340        1.0004547      -0.15834987E-03   0.98062353E-05
  25081.723       0.83236531       0.83551511       0.99737086        1.0005206      -0.11546562E-03   0.79045884E-05
  25086.831       0.83188200       0.83457341       0.99789885        1.0005902      -0.79424724E-04   0.62259699E-05
  25092.435       0.83151453       0.83354311       0.99863863        1.0006672      -0.48774476E-04   0.43709244E-05
  25097.997       0.83133741       0.83252321       0.99955844        1.0007442      -0.30621902E-04   0.26494372E-05
  25103.755       0.83116789       0.83147022        1.0005223        1.0008246      -0.18782764E-04   0.74714459E-06
  25109.441       0.83112245       0.83043319        1.0015940        1.0009047      -0.22070976E-04  -0.25404924E-05
  25115.202       0.83091524       0.82938561        1.0025161        1.0009864      -0.47864627E-04  -0.63492217E-05
  25120.866       0.83057564       0.82835858        1.0032846        1.0010675      -0.94605494E-04  -0.10369978E-04
  25126.390       0.82985682       0.82735957        1.0036446        1.0011473      -0.16388074E-03  -0.11496636E-04
  25132.151       0.82872618       0.82632059        1.0036367        1.0012311      -0.22434963E-03  -0.95241294E-05
  25137.814       0.82729390       0.82530229        1.0033058        1.0013141      -0.27268206E-03  -0.57318618E-05
  25143.418       0.82565373       0.82429716        1.0027536        1.0013970      -0.28893343E-03  -0.10913694E-06
  25148.990       0.82406452       0.82330074        1.0022438        1.0014800      -0.27390188E-03   0.43607063E-05
  25154.677       0.82256995       0.82228665        1.0018488        1.0015654      -0.23983760E-03   0.54011615E-05
  25160.638       0.82127106       0.82122683        1.0016999        1.0016557      -0.21099275E-03   0.34948618E-05
  25166.142       0.82015101       0.82025101        1.0016397        1.0017396      -0.19977049E-03   0.10946340E-05
  25171.837       0.81903379       0.81924416        1.0016169        1.0018272      -0.19873376E-03  -0.14015718E-05
  25177.649       0.81786407       0.81821958        1.0015619        1.0019173      -0.21589916E-03  -0.27794750E-05
  25183.186       0.81658361       0.81724648        1.0013410        1.0020038      -0.23027722E-03  -0.38569094E-05
  25188.922       0.81526827       0.81624114        1.0011213        1.0020941      -0.25937622E-03  -0.44096936E-05
  25194.633       0.81361451       0.81524318        1.0005560        1.0021847      -0.28075533E-03  -0.11564454E-05
  25200.371       0.81205395       0.81424343        1.0000869        1.0022764      -0.27261615E-03   0.36330985E-05
  25206.010       0.81051292       0.81051297       0.99961637       0.99961637      -0.23942105E-03   0.71615405E-05
  25211.754       0.80932852       0.80932857       0.99952014       0.99952014      -0.19109335E-03   0.60970789E-05
  25217.530       0.80831145       0.80831150       0.99959502       0.99959502      -0.16918042E-03   0.42599790E-05
  25223.003       0.80742538       0.80742543       0.99974147       0.99974147      -0.14317206E-03   0.36061018E-05
  25228.767       0.80670261       0.80670266        1.0001039        1.0001039      -0.12865822E-03   0.13082076E-05
  25234.484       0.80594834       0.80594839        1.0004236        1.0004236      -0.12815338E-03   0.76560393E-06
  25240.184       0.80523958       0.80523963        1.0007835        1.0007835      -0.11991790E-03  -0.25507742E-06
  25246.004       0.80456683       0.80456688        1.0011998        1.0011998      -0.13109199E-03  -0.17190915E-05
  25251.613       0.80374121       0.80374126        1.0014215        1.0014215      -0.13956697E-03  -0.60545792E-06
  25257.403       0.80297588       0.80297593        1.0017348        1.0017348      -0.13799371E-03  -0.29007999E-07
  25263.075       0.80215958       0.80215963        1.0019730        1.0019730      -0.13989945E-03  -0.10233919E-06
  25269.056       0.80134564       0.80134569        1.0022687        1.0022687      -0.13918627E-03  -0.12578782E-05
  25274.789       0.80052910       0.80052915        1.0025135        1.0025135      -0.15463474E-03  -0.22799224E-05
  25280.292       0.79960822       0.79960827        1.0026091        1.0026091      -0.16480267E-03  -0.20434181E-05
  25286.125       0.79866090       0.79866095        1.0027372        1.0027372      -0.17779892E-03  -0.32467667E-05
  25291.785       0.79756475       0.79756480        1.0026822        1.0026822      -0.20211820E-03  -0.35591505E-05
  25297.503       0.79636132       0.79636137        1.0025283        1.0025283      -0.21829277E-03  -0.39670322E-05
  25303.426       0.79502370       0.79502375        1.0022755        1.0022755      -0.24829675E-03  -0.32062727E-05
  25309.019       0.79350199       0.79350204        1.0017761        1.0017761      -0.25521547E-03   0.12603253E-05
  25314.953       0.79208179       0.79208184        1.0014381        1.0014381      -0.23376879E-03   0.38054584E-05
  25321.000       0.79070121       0.79070126        1.0011579        1.0011579      -0.20962231E-03   0.35764239E-05
  25327.747       0.78939977       0.78939982        1.0010813        1.0010813      -0.18801004E-03   0.23165577E-05
  25334.234       0.78821300       0.78821305        1.0010692        1.0010692      -0.17896393E-03   0.30245807E-06
  25340.658       0.78708928       0.78708933        1.0011058        1.0011058      -0.18410520E-03  -0.10782869E-05
  25347.121       0.78584041       0.78584046        1.0010216        1.0010216      -0.19285998E-03  -0.19215364E-05
  25353.498       0.78461281       0.78461286        1.0009403        1.0009403      -0.20877922E-03  -0.24681641E-05
  25360.047       0.78314171       0.78314176        1.0006435        1.0006435      -0.22476367E-03  -0.26712241E-06
  25366.383       0.78171692       0.78171696        1.0003519        1.0003519      -0.21222087E-03   0.32155816E-05
  25372.906       0.78041278       0.78041283        1.0002118        1.0002118      -0.18341477E-03   0.45232064E-05
  25379.173       0.77937103       0.77937108        1.0002854        1.0002854      -0.15436871E-03   0.33427117E-05
  25385.856       0.77841373       0.77841378        1.0005147        1.0005147      -0.14012726E-03   0.13132785E-05
  25392.309       0.77753032       0.77753037        1.0007740        1.0007740      -0.13711756E-03   0.10727603E-06
  25398.817       0.77663652       0.77663657        1.0010300        1.0010300      -0.13873683E-03  -0.95829660E-06
  25405.132       0.77575128       0.77575132        1.0012574        1.0012574      -0.14940598E-03  -0.20063755E-05
  25411.662       0.77471744       0.77471749        1.0013715        1.0013715      -0.16450824E-03  -0.22917651E-05
  25418.139       0.77361145       0.77361150        1.0014011        1.0014011      -0.17921588E-03  -0.17158972E-05
  25424.509       0.77241498       0.77241503        1.0013187        1.0013187      -0.18655306E-03   0.26578970E-06
  25431.070       0.77119921       0.77119926        1.0012474        1.0012474      -0.17577907E-03   0.22317539E-05
  25437.659       0.77010354       0.77010359        1.0012983        1.0012983      -0.15720618E-03   0.15510079E-05
  25444.393       0.76910478       0.76910483        1.0014680        1.0014680      -0.15511522E-03  -0.51852381E-06
  25450.683       0.76808326       0.76808331        1.0015354        1.0015354      -0.16395962E-03  -0.14180225E-05
  25457.243       0.76699788       0.76699793        1.0015825        1.0015825      -0.17333697E-03  -0.17908191E-05
  25463.684       0.76582983       0.76582988        1.0015237        1.0015237      -0.18724077E-03  -0.29722930E-05
  25470.213       0.76456934       0.76456938        1.0013847        1.0013847      -0.21188812E-03  -0.31171319E-05
  25476.687       0.76307461       0.76307466        1.0009991        1.0009991      -0.22777347E-03  -0.91290159E-06
  25483.228       0.76160474       0.76160478        1.0006470        1.0006470      -0.22377004E-03   0.20631650E-05
  25489.567       0.76019249       0.76019254        1.0003150        1.0003150      -0.20120025E-03   0.37597270E-05
  25496.075       0.75901999       0.75902004        1.0002489        1.0002489      -0.17547020E-03   0.25061064E-05
  25502.782       0.75787361       0.75787366        1.0002396        1.0002396      -0.16808147E-03   0.96930784E-06
  25509.401       0.75678021       0.75678026        1.0002653        1.0002653      -0.16255365E-03   0.33717156E-06
  25515.954       0.75573253       0.75573258        1.0003227        1.0003227      -0.16364041E-03  -0.99179037E-06
  25522.310       0.75466769       0.75466774        1.0003270        1.0003270      -0.17535719E-03  -0.22449337E-05
  25528.975       0.75344911       0.75344916        1.0002264        1.0002264      -0.19287286E-03  -0.96095103E-06
  25535.311       0.75216008       0.75216013       0.99999748       0.99999748      -0.18785089E-03   0.70142732E-06
  25541.971       0.75100791       0.75100796       0.99995642       0.99995642      -0.18375751E-03   0.14047596E-05
  25548.426       0.74975009       0.74975014       0.99977292       0.99977292      -0.16942743E-03   0.26516364E-05
  25554.978       0.74880409       0.74880414       0.99991421       0.99991421      -0.14926649E-03   0.16696436E-05
  25561.596       0.74778426       0.74778430       0.99998982       0.99998982      -0.14743826E-03   0.16033072E-06
  25568.332       0.74683513       0.74683517        1.0001525        1.0001525      -0.14712536E-03  -0.10840514E-05
  25574.938       0.74582132       0.74582137        1.0002260        1.0002260      -0.16190158E-03  -0.21561981E-05
  25581.797       0.74465520       0.74465525        1.0001856        1.0001856      -0.17615752E-03  -0.16111427E-05
  25589.098       0.74332703       0.74332707        1.0000522        1.0000522      -0.18471452E-03  -0.61528743E-06
  25596.080       0.74201687       0.74201692       0.99988135       0.99988135      -0.18494584E-03   0.90730001E-06
  25603.125       0.74073278       0.74073283       0.99974330       0.99974330      -0.17198777E-03   0.19543732E-05
  25610.321       0.73956770       0.73956775       0.99974532       0.99974532      -0.15711487E-03   0.98661736E-06
  25617.553       0.73846587       0.73846592       0.99981301       0.99981301      -0.15775251E-03  -0.86316138E-07
  25624.685       0.73730165       0.73730169       0.99979852       0.99979852      -0.15835477E-03  -0.38888060E-06
  25632.102       0.73616200       0.73616205       0.99985084       0.99985084      -0.16341026E-03  -0.15331424E-05
  25639.264       0.73491931       0.73491935       0.99975559       0.99975559      -0.18070627E-03  -0.27109557E-05
  25646.510       0.73355846       0.73355851       0.99955198       0.99955198      -0.20246857E-03  -0.18282070E-05
  25653.352       0.73206705       0.73206710       0.99915004       0.99915004      -0.20646096E-03   0.10974187E-05
  25660.600       0.73064938       0.73064942       0.99888307       0.99888307      -0.18700568E-03   0.26006348E-05
  25667.757       0.72937321       0.72937326       0.99873953       0.99873953      -0.16899850E-03   0.21892773E-05
  25675.062       0.72820530       0.72820535       0.99872415       0.99872415      -0.15534414E-03   0.91636135E-06
  25682.227       0.72712527       0.72712532       0.99877101       0.99877101      -0.15573811E-03  -0.59967329E-06
  25689.511       0.72595506       0.72595511       0.99874267       0.99874267      -0.16400876E-03  -0.97684751E-06
  25696.729       0.72474683       0.72474688       0.99866252       0.99866252      -0.16990428E-03  -0.16669932E-05
  25704.031       0.72348803       0.72348808       0.99854119       0.99854119      -0.18821371E-03  -0.14894581E-05
  25711.059       0.72204970       0.72204975       0.99819431       0.99819431      -0.19124842E-03   0.12086328E-05
  25718.289       0.72076129       0.72076133       0.99802498       0.99802498      -0.17098151E-03   0.24932095E-05
  25725.353       0.71960570       0.71960575       0.99795958       0.99795958      -0.15561064E-03   0.15944354E-05
  25732.655       0.71852573       0.71852577       0.99800275       0.99800275      -0.14807526E-03   0.60062162E-06
  25739.753       0.71747348       0.71747352       0.99803882       0.99803882      -0.14696192E-03  -0.29033500E-06
  25747.288       0.71637522       0.71637527       0.99809212       0.99809212      -0.15232375E-03  -0.11532823E-05
  25754.534       0.71522190       0.71522195       0.99804259       0.99804259      -0.16400916E-03  -0.19300802E-05
  25761.943       0.71397165       0.71397169       0.99791711       0.99791711      -0.18060933E-03  -0.18749231E-05
  25768.838       0.71263852       0.71263856       0.99762740       0.99762740      -0.19082757E-03   0.31970272E-06
  25776.111       0.71126799       0.71126803       0.99735397       0.99735397      -0.17607976E-03   0.23331981E-05
  25783.334       0.71008606       0.71008610       0.99725800       0.99725800      -0.15700544E-03   0.18102843E-05
  25790.695       0.70897833       0.70897838       0.99725320       0.99725320      -0.14967987E-03   0.79953756E-06
  25797.850       0.70791329       0.70791334       0.99725689       0.99725689      -0.14539930E-03  -0.41101880E-06
  25805.248       0.70686224       0.70686228       0.99730704       0.99730704      -0.15566171E-03  -0.16614698E-05
  25812.389       0.70565013       0.70565017       0.99715435       0.99715435      -0.16955538E-03  -0.16706728E-05
  25819.918       0.70437487       0.70437492       0.99699226       0.99699226      -0.18017036E-03  -0.17125025E-05
  25827.044       0.70300972       0.70300976       0.99667716       0.99667716      -0.19465227E-03  -0.63831675E-07
  25834.338       0.70156794       0.70156798       0.99630656       0.99630656      -0.18109083E-03   0.23099238E-05
  25841.536       0.70038551       0.70038555       0.99617752       0.99617752      -0.16117889E-03   0.20677402E-05
  25849.174       0.69917680       0.69917684       0.99608286       0.99608286      -0.15041527E-03   0.88257532E-06
  25856.113       0.69819276       0.69819281       0.99610755       0.99610755      -0.14831275E-03  -0.27579342E-06
  25863.562       0.69704282       0.69704287       0.99603663       0.99603663      -0.15438348E-03  -0.81501655E-06
